##TITLE= 29180
##JCAMP_DX= 4.24
##DATA TYPE= INFRARED SPECTRUM
##CLASS= <UNKNOWN>
##DATE= 2014/04/26
##DATA PROCESSING= 0
##XUNITS= NANOMETERS
##YUNITS= TRANSMITTANCE\REFLECTANCE
##XFACTOR= 1.00000
##YFACTOR= 1.00000
##FIRSTX= 400.00
##LASTX= 2498.00
##MINY= 0.123367
##MAXY= 0.942846
##NPOINTS= 1050
##FIRSTY= 0.686752
##CONCENTRATIONS= (NCU)
<Anonymized1>,94.25,<N.A.>
<Anonymized2>,69.35,<N.A.>
<Anonymized3>,14.25,<N.A.>
<Anonymized4>,13.65,<N.A.>
##XYDATA= (X++(Y..Y))
400.00 0.686752 0.711722 0.734469 0.754868 0.774339 0.792213 0.807473
414.00 0.820983 0.833127 0.843735 0.852727 0.861081 0.868355 0.873712
428.00 0.877550 0.880717 0.883880 0.885284 0.883107 0.878402 0.872735
442.00 0.866886 0.860651 0.855030 0.851502 0.851262 0.852777 0.855926
456.00 0.860433 0.865122 0.868304 0.869594 0.868952 0.867007 0.864161
470.00 0.860003 0.855023 0.850188 0.845890 0.841702 0.837425 0.833177
484.00 0.829335 0.826136 0.823265 0.820213 0.816957 0.813689 0.810085
498.00 0.805526 0.799831 0.793314 0.785799 0.777469 0.768544 0.759023
512.00 0.748726 0.736837 0.723621 0.710142 0.697392 0.685432 0.674602
526.00 0.665318 0.657810 0.651741 0.646795 0.643618 0.641723 0.640394
540.00 0.639496 0.639414 0.639998 0.640511 0.641094 0.642164 0.643725
554.00 0.645784 0.648293 0.651429 0.655333 0.659827 0.664118 0.667906
568.00 0.671549 0.675105 0.678359 0.681543 0.684976 0.688445 0.691871
582.00 0.695186 0.698227 0.701211 0.704641 0.708204 0.711456 0.714704
596.00 0.718428 0.722592 0.726881 0.731375 0.736085 0.740820 0.745471
610.00 0.750032 0.754317 0.758185 0.761631 0.764674 0.767329 0.769720
624.00 0.772217 0.775026 0.778231 0.781992 0.786657 0.792126 0.798511
638.00 0.805785 0.813894 0.822626 0.831737 0.841449 0.851758 0.862560
652.00 0.873584 0.884556 0.895383 0.906040 0.916085 0.925093 0.932764
666.00 0.938505 0.942151 0.942846 0.940452 0.934283 0.924221 0.910459
680.00 0.891976 0.869745 0.843678 0.814633 0.783392 0.750479 0.716674
694.00 0.682654 0.649019 0.616298 0.585103 0.555616 0.528152 0.502573
708.00 0.479329 0.458108 0.438937 0.421808 0.406314 0.392655 0.380348
722.00 0.369465 0.359831 0.351232 0.343594 0.336742 0.330702 0.325191
736.00 0.320192 0.315659 0.311519 0.307778 0.304324 0.301151 0.298184
750.00 0.295402 0.292785 0.290281 0.287919 0.285694 0.283568 0.281478
764.00 0.279416 0.277341 0.275225 0.273025 0.270664 0.268039 0.265226
778.00 0.262544 0.260286 0.258381 0.256760 0.255301 0.253938 0.252613
792.00 0.251302 0.249996 0.248708 0.247428 0.246131 0.244829 0.243539
806.00 0.242253 0.240959 0.239672 0.238406 0.237162 0.235931 0.234700
820.00 0.233477 0.232270 0.231074 0.229895 0.228737 0.227605 0.226483
834.00 0.225357 0.224226 0.223102 0.222005 0.220939 0.219890 0.218847
848.00 0.217818 0.216799 0.215781 0.214770 0.213769 0.212771 0.211776
862.00 0.210800 0.209845 0.208903 0.207969 0.207044 0.206126 0.205214
876.00 0.204308 0.203417 0.202547 0.201668 0.200772 0.199904 0.199080
890.00 0.198274 0.197472 0.196689 0.195912 0.195142 0.194399 0.193682
904.00 0.192956 0.192204 0.191451 0.190712 0.189981 0.189252 0.188525
918.00 0.187812 0.187125 0.186447 0.185759 0.185074 0.184393 0.183703
932.00 0.183008 0.182321 0.181644 0.180966 0.180277 0.179583 0.178915
946.00 0.178273 0.177647 0.177024 0.176411 0.175813 0.175239 0.174686
960.00 0.174141 0.173613 0.173102 0.172609 0.172126 0.171658 0.171200
974.00 0.170754 0.170317 0.169882 0.169442 0.168996 0.168548 0.168096
988.00 0.167637 0.167173 0.166700 0.166215 0.165730 0.165252 0.164784
1002.00 0.164301 0.163795 0.163288 0.162793 0.162301 0.161812 0.161319
1016.00 0.160814 0.160307 0.159811 0.159324 0.158842 0.158360 0.157876
1030.00 0.157391 0.156903 0.156409 0.155904 0.155398 0.154911 0.154449
1044.00 0.154000 0.153546 0.153097 0.152661 0.152217 0.151762 0.151298
1058.00 0.150815 0.150324 0.149850 0.149391 0.148943 0.148487 0.148007
1072.00 0.147511 0.147027 0.146580 0.146162 0.145737 0.145309 0.144887
1086.00 0.144446 0.143999 0.143587 0.143235 0.142900 0.142552 0.142193
1100.00 0.133821 0.133549 0.133295 0.133057 0.132838 0.132637 0.132444
1114.00 0.132255 0.132071 0.131903 0.131757 0.131636 0.131532 0.131452
1128.00 0.131398 0.131378 0.131383 0.131403 0.131439 0.131494 0.131557
1142.00 0.131624 0.131698 0.131792 0.131922 0.132090 0.132291 0.132515
1156.00 0.132760 0.133019 0.133306 0.133603 0.133890 0.134169 0.134446
1170.00 0.134726 0.135014 0.135307 0.135623 0.135957 0.136297 0.136634
1184.00 0.136963 0.137251 0.137498 0.137688 0.137816 0.137875 0.137898
1198.00 0.137878 0.137820 0.137721 0.137595 0.137432 0.137230 0.136977
1212.00 0.136675 0.136309 0.135905 0.135455 0.134977 0.134478 0.133959
1226.00 0.133436 0.132923 0.132433 0.131961 0.131528 0.131116 0.130729
1240.00 0.130359 0.130015 0.129695 0.129398 0.129111 0.128843 0.128588
1254.00 0.128354 0.128137 0.127938 0.127750 0.127580 0.127416 0.127251
1268.00 0.127087 0.126917 0.126735 0.126534 0.126320 0.126078 0.125827
1282.00 0.125575 0.125328 0.125084 0.124840 0.124603 0.124376 0.124160
1296.00 0.123959 0.123792 0.123646 0.123526 0.123435 0.123390 0.123371
1310.00 0.123367 0.123379 0.123427 0.123500 0.123609 0.123748 0.123918
1324.00 0.124118 0.124367 0.124655 0.124991 0.125368 0.125792 0.126256
1338.00 0.126770 0.127351 0.127987 0.128666 0.129412 0.130253 0.131155
1352.00 0.132086 0.133031 0.134000 0.134978 0.135946 0.136900 0.137811
1366.00 0.138676 0.139492 0.140273 0.141015 0.141727 0.142444 0.143187
1380.00 0.143982 0.144842 0.145782 0.146807 0.147938 0.149172 0.150499
1394.00 0.151954 0.153523 0.155268 0.157149 0.159230 0.161491 0.163955
1408.00 0.166573 0.169369 0.172288 0.175352 0.178518 0.181714 0.184946
1422.00 0.188198 0.191427 0.194611 0.197655 0.200548 0.203271 0.205842
1436.00 0.208218 0.210421 0.212419 0.214252 0.215930 0.217477 0.218914
1450.00 0.220234 0.221460 0.222603 0.223686 0.224700 0.225646 0.226523
1464.00 0.227340 0.228078 0.228753 0.229357 0.229881 0.230336 0.230739
1478.00 0.231120 0.231470 0.231789 0.232070 0.232315 0.232535 0.232730
1492.00 0.232889 0.233017 0.233091 0.233123 0.233119 0.233060 0.232958
1506.00 0.232842 0.232718 0.232562 0.232383 0.232175 0.231939 0.231680
1520.00 0.231422 0.231176 0.230953 0.230759 0.230561 0.230368 0.230216
1534.00 0.230102 0.229996 0.229904 0.229860 0.229848 0.229830 0.229806
1548.00 0.229795 0.229790 0.229800 0.229818 0.229863 0.229936 0.230062
1562.00 0.230234 0.230442 0.230675 0.230925 0.231174 0.231400 0.231593
1576.00 0.231754 0.231869 0.231920 0.231922 0.231860 0.231733 0.231534
1590.00 0.231261 0.230933 0.230533 0.230080 0.229578 0.229040 0.228487
1604.00 0.227917 0.227339 0.226760 0.226177 0.225618 0.225090 0.224578
1618.00 0.224079 0.223604 0.223161 0.222747 0.222342 0.221949 0.221571
1632.00 0.221211 0.220868 0.220548 0.220273 0.220034 0.219837 0.219674
1646.00 0.219531 0.219435 0.219381 0.219402 0.219510 0.219694 0.219978
1660.00 0.220309 0.220722 0.221216 0.221749 0.222339 0.222950 0.223623
1674.00 0.224414 0.225285 0.226256 0.227316 0.228463 0.229727 0.231075
1688.00 0.232495 0.233985 0.235468 0.236878 0.238206 0.239411 0.240518
1702.00 0.241555 0.242526 0.243451 0.244330 0.245158 0.245925 0.246634
1716.00 0.247272 0.247857 0.248388 0.248850 0.249241 0.249523 0.249674
1730.00 0.249650 0.249400 0.248965 0.248424 0.247852 0.247333 0.246928
1744.00 0.246634 0.246462 0.246400 0.246417 0.246505 0.246644 0.246805
1758.00 0.246967 0.247086 0.247125 0.247063 0.246851 0.246482 0.245998
1772.00 0.245444 0.244862 0.244288 0.243720 0.243185 0.242705 0.242264
1786.00 0.241878 0.241551 0.241256 0.240972 0.240678 0.240356 0.240020
1800.00 0.239687 0.239356 0.239041 0.238751 0.238496 0.238281 0.238074
1814.00 0.237858 0.237642 0.237415 0.237177 0.236919 0.236604 0.236245
1828.00 0.235862 0.235435 0.234965 0.234468 0.233957 0.233453 0.232951
1842.00 0.232437 0.231910 0.231397 0.230953 0.230588 0.230314 0.230146
1856.00 0.230062 0.230066 0.230158 0.230344 0.230620 0.231039 0.231612
1870.00 0.232320 0.233226 0.234309 0.235563 0.237051 0.238857 0.241029
1884.00 0.243620 0.246771 0.250450 0.254676 0.259510 0.264813 0.270511
1898.00 0.276550 0.282828 0.289247 0.295645 0.301914 0.307967 0.313707
1912.00 0.319065 0.324031 0.328623 0.332774 0.336445 0.339689 0.342466
1926.00 0.344756 0.346602 0.348019 0.348989 0.349541 0.349743 0.349591
1940.00 0.349098 0.348351 0.347368 0.346179 0.344826 0.343367 0.341808
1954.00 0.340193 0.338559 0.336890 0.335234 0.333617 0.332074 0.330605
1968.00 0.329165 0.327758 0.326386 0.325047 0.323734 0.322430 0.321140
1982.00 0.319879 0.318648 0.317464 0.316345 0.315295 0.314334 0.313450
1996.00 0.312665 0.312004 0.311469 0.311092 0.310888 0.310877 0.311031
2010.00 0.311343 0.311857 0.312570 0.313494 0.314650 0.316080 0.317761
2024.00 0.319675 0.321804 0.324144 0.326715 0.329493 0.332466 0.335641
2038.00 0.338967 0.342430 0.345993 0.349663 0.353355 0.356958 0.360490
2052.00 0.363869 0.367057 0.370018 0.372664 0.375043 0.377170 0.379084
2066.00 0.380783 0.382314 0.383724 0.385017 0.386220 0.387314 0.388355
2080.00 0.389331 0.390215 0.391066 0.391894 0.392707 0.393501 0.394306
2094.00 0.395116 0.395922 0.396720 0.397477 0.398184 0.398834 0.399414
2108.00 0.399912 0.400361 0.400756 0.401074 0.401319 0.401489 0.401579
2122.00 0.401573 0.401468 0.401326 0.401200 0.401049 0.400912 0.400782
2136.00 0.400604 0.400408 0.400163 0.399868 0.399516 0.399123 0.398741
2150.00 0.398371 0.398020 0.397713 0.397459 0.397203 0.396893 0.396490
2164.00 0.396027 0.395499 0.394843 0.394069 0.393210 0.392307 0.391343
2178.00 0.390336 0.389276 0.388158 0.387037 0.385912 0.384769 0.383604
2192.00 0.382454 0.381381 0.380387 0.379459 0.378630 0.377878 0.377190
2206.00 0.376558 0.375966 0.375445 0.374999 0.374617 0.374302 0.374106
2220.00 0.374045 0.374123 0.374369 0.374843 0.375581 0.376609 0.378004
2234.00 0.379784 0.381994 0.384523 0.387389 0.390611 0.394020 0.397517
2248.00 0.401136 0.404782 0.408378 0.411977 0.415513 0.418992 0.422362
2262.00 0.425604 0.428794 0.431925 0.434927 0.437681 0.440067 0.442120
2276.00 0.443860 0.445223 0.446277 0.447100 0.447788 0.448335 0.448872
2290.00 0.449619 0.450562 0.451727 0.453157 0.454836 0.456696 0.458662
2304.00 0.460714 0.462704 0.464443 0.465801 0.466583 0.466747 0.466411
2318.00 0.465925 0.465547 0.465442 0.465576 0.465786 0.466050 0.466349
2332.00 0.466674 0.467011 0.467391 0.467836 0.468330 0.468799 0.469164
2346.00 0.469333 0.469133 0.468552 0.467550 0.466339 0.465114 0.463917
2360.00 0.462861 0.461917 0.461089 0.460372 0.459726 0.459164 0.458713
2374.00 0.458384 0.458206 0.458135 0.458147 0.458178 0.458187 0.458220
2388.00 0.458211 0.458183 0.458218 0.458240 0.458270 0.458421 0.458774
2402.00 0.459393 0.460273 0.461393 0.462651 0.464012 0.465420 0.466886
2416.00 0.468512 0.470220 0.472007 0.473905 0.475924 0.478009 0.480166
2430.00 0.482448 0.484853 0.487380 0.490151 0.493053 0.495910 0.498796
2444.00 0.501777 0.504809 0.507898 0.511021 0.514250 0.517665 0.521111
2458.00 0.524454 0.527740 0.530951 0.534079 0.537023 0.539805 0.542458
2472.00 0.544981 0.547358 0.549499 0.551385 0.553097 0.554634 0.555950
2486.00 0.557065 0.557923 0.558435 0.558752 0.558947 0.558988 0.558884
##END=
