$$ Created with JCAMP-Anonymizer V1.5 by CalibrationModel.com - (c) by Bossart Analytics - Switzerland
##TITLE= Mystery data set for Kaji 2014
##JCAMP_DX= 4.24
##DATA TYPE= LINK
##BLOCKS= 176
##TITLE= 29179
##JCAMP_DX= 4.24
##DATA TYPE= INFRARED SPECTRUM
##CLASS= <UNKNOWN>
##DATE= 2014/04/26
##DATA PROCESSING= 0
##XUNITS= NANOMETERS
##YUNITS= TRANSMITTANCE\REFLECTANCE
##XFACTOR= 1.00000
##YFACTOR= 1.00000
##FIRSTX= 400.00
##LASTX= 2498.00
##MINY= 0.124125
##MAXY= 0.971490
##NPOINTS= 1050 
##FIRSTY= 0.704529
##CONCENTRATIONS= (NCU)
<Anonymized1>,94.63,<N.A.>
<Anonymized2>,69.55,<N.A.>
<Anonymized3>,14.89,<N.A.>
<Anonymized4>,13.82,<N.A.>
##XYDATA= (X++(Y..Y))
400.00 0.704529 0.727331 0.748073 0.767367 0.786476 0.803822 0.818317 
414.00 0.831459 0.843467 0.853523 0.861620 0.869257 0.876163 0.881634 
428.00 0.885855 0.889145 0.892521 0.894706 0.893270 0.888838 0.883315 
442.00 0.877567 0.871327 0.865916 0.862809 0.862984 0.864951 0.868532 
456.00 0.873408 0.878656 0.882570 0.884302 0.883632 0.881396 0.878233 
470.00 0.874044 0.869308 0.864610 0.860090 0.855481 0.850737 0.846132 
484.00 0.842425 0.839699 0.836875 0.833273 0.829896 0.827365 0.824358 
498.00 0.819691 0.813868 0.807738 0.800620 0.792368 0.783697 0.774771 
512.00 0.764948 0.753445 0.740797 0.727789 0.715218 0.703534 0.693155 
526.00 0.684053 0.676517 0.670738 0.666196 0.662869 0.660787 0.659918 
540.00 0.659432 0.658920 0.658737 0.658912 0.659341 0.660085 0.661289 
554.00 0.663257 0.665857 0.668714 0.671630 0.674965 0.678727 0.682505 
568.00 0.686332 0.690130 0.693542 0.696548 0.699665 0.703046 0.706575 
582.00 0.710153 0.713690 0.717049 0.720359 0.723995 0.728008 0.732075 
596.00 0.736207 0.740746 0.745570 0.750456 0.755414 0.760473 0.765470 
610.00 0.770179 0.774415 0.778286 0.781796 0.784759 0.787248 0.789644 
624.00 0.792256 0.795196 0.798669 0.802837 0.807872 0.813707 0.820579 
638.00 0.828309 0.836745 0.845899 0.855663 0.865994 0.876609 0.887525 
652.00 0.898819 0.910259 0.921516 0.932456 0.942753 0.952119 0.960233 
666.00 0.966389 0.970398 0.971490 0.969589 0.963943 0.954330 0.941037 
680.00 0.923242 0.901838 0.876579 0.848300 0.817791 0.785451 0.751959 
694.00 0.717876 0.683846 0.650292 0.617726 0.586390 0.556668 0.528526 
708.00 0.502384 0.478099 0.455803 0.435524 0.416930 0.400336 0.385258 
722.00 0.371834 0.359925 0.349309 0.339923 0.331561 0.324280 0.317726 
736.00 0.311875 0.306660 0.301979 0.297820 0.294019 0.290586 0.287430 
750.00 0.284498 0.281757 0.279162 0.276740 0.274459 0.272293 0.270202 
764.00 0.268192 0.266211 0.264215 0.262165 0.259966 0.257471 0.254738 
778.00 0.252101 0.249888 0.248053 0.246540 0.245206 0.243978 0.242793 
792.00 0.241626 0.240466 0.239318 0.238171 0.237007 0.235847 0.234698 
806.00 0.233547 0.232395 0.231259 0.230133 0.229010 0.227898 0.226789 
820.00 0.225682 0.224585 0.223501 0.222426 0.221357 0.220309 0.219280 
834.00 0.218255 0.217227 0.216207 0.215202 0.214213 0.213239 0.212274 
848.00 0.211319 0.210372 0.209431 0.208504 0.207596 0.206697 0.205797 
862.00 0.204906 0.204027 0.203160 0.202306 0.201464 0.200627 0.199793 
876.00 0.198967 0.198158 0.197367 0.196565 0.195746 0.194952 0.194195 
890.00 0.193452 0.192720 0.192004 0.191288 0.190576 0.189896 0.189254 
904.00 0.188606 0.187924 0.187232 0.186563 0.185905 0.185242 0.184582 
918.00 0.183950 0.183345 0.182736 0.182116 0.181502 0.180891 0.180269 
932.00 0.179640 0.179015 0.178394 0.177768 0.177130 0.176485 0.175860 
946.00 0.175260 0.174674 0.174091 0.173519 0.172960 0.172421 0.171903 
960.00 0.171399 0.170906 0.170420 0.169949 0.169493 0.169051 0.168621 
974.00 0.168207 0.167806 0.167408 0.167001 0.166586 0.166172 0.165756 
988.00 0.165328 0.164890 0.164447 0.164004 0.163563 0.163128 0.162699 
1002.00 0.162255 0.161791 0.161327 0.160872 0.160417 0.159966 0.159511 
1016.00 0.159040 0.158567 0.158109 0.157661 0.157212 0.156757 0.156297 
1030.00 0.155838 0.155385 0.154921 0.154435 0.153947 0.153483 0.153048 
1044.00 0.152627 0.152204 0.151784 0.151372 0.150944 0.150507 0.150068 
1058.00 0.149609 0.149135 0.148681 0.148250 0.147833 0.147412 0.146972 
1072.00 0.146515 0.146063 0.145652 0.145273 0.144878 0.144467 0.144063 
1086.00 0.143645 0.143226 0.142844 0.142523 0.142218 0.141892 0.141548 
1100.00 0.132699 0.132440 0.132184 0.131931 0.131685 0.131449 0.131222 
1114.00 0.131006 0.130800 0.130617 0.130469 0.130358 0.130268 0.130207 
1128.00 0.130173 0.130177 0.130215 0.130281 0.130372 0.130485 0.130610 
1142.00 0.130745 0.130898 0.131076 0.131285 0.131519 0.131778 0.132058 
1156.00 0.132356 0.132664 0.132993 0.133328 0.133650 0.133961 0.134261 
1170.00 0.134548 0.134823 0.135095 0.135379 0.135677 0.135981 0.136288 
1184.00 0.136592 0.136861 0.137102 0.137301 0.137448 0.137535 0.137590 
1198.00 0.137600 0.137569 0.137506 0.137427 0.137318 0.137173 0.136980 
1212.00 0.136743 0.136440 0.136088 0.135682 0.135241 0.134772 0.134281 
1226.00 0.133785 0.133298 0.132830 0.132380 0.131964 0.131557 0.131160 
1240.00 0.130773 0.130399 0.130038 0.129703 0.129386 0.129091 0.128813 
1254.00 0.128570 0.128355 0.128165 0.127988 0.127832 0.127688 0.127551 
1268.00 0.127418 0.127283 0.127141 0.126988 0.126826 0.126642 0.126448 
1282.00 0.126246 0.126039 0.125828 0.125614 0.125400 0.125195 0.125005 
1296.00 0.124829 0.124682 0.124548 0.124429 0.124328 0.124263 0.124209 
1310.00 0.124159 0.124125 0.124133 0.124168 0.124246 0.124360 0.124517 
1324.00 0.124718 0.124970 0.125260 0.125598 0.125980 0.126416 0.126900 
1338.00 0.127442 0.128055 0.128732 0.129465 0.130268 0.131155 0.132093 
1352.00 0.133056 0.134031 0.135027 0.136028 0.137016 0.137987 0.138915 
1366.00 0.139789 0.140596 0.141358 0.142068 0.142736 0.143399 0.144087 
1380.00 0.144828 0.145635 0.146527 0.147509 0.148592 0.149776 0.151053 
1394.00 0.152451 0.153958 0.155649 0.157490 0.159538 0.161765 0.164201 
1408.00 0.166805 0.169595 0.172500 0.175539 0.178678 0.181846 0.185050 
1422.00 0.188282 0.191500 0.194679 0.197719 0.200613 0.203331 0.205883 
1436.00 0.208222 0.210381 0.212328 0.214113 0.215751 0.217269 0.218688 
1450.00 0.220004 0.221239 0.222398 0.223498 0.224525 0.225488 0.226395 
1464.00 0.227250 0.228032 0.228758 0.229426 0.230026 0.230562 0.231045 
1478.00 0.231498 0.231909 0.232282 0.232618 0.232919 0.233196 0.233448 
1492.00 0.233656 0.233826 0.233930 0.233970 0.233949 0.233855 0.233703 
1506.00 0.233528 0.233348 0.233149 0.232940 0.232710 0.232465 0.232209 
1520.00 0.231957 0.231710 0.231491 0.231321 0.231157 0.231003 0.230903 
1534.00 0.230858 0.230824 0.230803 0.230815 0.230844 0.230860 0.230863 
1548.00 0.230869 0.230881 0.230903 0.230937 0.230999 0.231078 0.231193 
1562.00 0.231337 0.231501 0.231677 0.231863 0.232055 0.232238 0.232397 
1576.00 0.232535 0.232641 0.232693 0.232697 0.232639 0.232518 0.232329 
1590.00 0.232074 0.231770 0.231401 0.230987 0.230529 0.230038 0.229526 
1604.00 0.228989 0.228432 0.227863 0.227285 0.226734 0.226212 0.225704 
1618.00 0.225208 0.224729 0.224265 0.223808 0.223347 0.222879 0.222412 
1632.00 0.221969 0.221560 0.221177 0.220847 0.220571 0.220352 0.220166 
1646.00 0.220000 0.219885 0.219826 0.219861 0.220000 0.220213 0.220523 
1660.00 0.220893 0.221362 0.221909 0.222484 0.223113 0.223765 0.224486 
1674.00 0.225337 0.226279 0.227326 0.228459 0.229671 0.230974 0.232335 
1688.00 0.233751 0.235226 0.236691 0.238091 0.239411 0.240614 0.241736 
1702.00 0.242801 0.243798 0.244746 0.245639 0.246473 0.247249 0.247971 
1716.00 0.248621 0.249220 0.249767 0.250250 0.250669 0.250975 0.251126 
1730.00 0.251083 0.250813 0.250360 0.249805 0.249226 0.248705 0.248299 
1744.00 0.247997 0.247802 0.247694 0.247642 0.247642 0.247689 0.247771 
1758.00 0.247869 0.247938 0.247931 0.247825 0.247582 0.247193 0.246694 
1772.00 0.246137 0.245563 0.245002 0.244469 0.243986 0.243564 0.243187 
1786.00 0.242842 0.242535 0.242257 0.241991 0.241709 0.241397 0.241076 
1800.00 0.240758 0.240442 0.240128 0.239813 0.239503 0.239214 0.238929 
1814.00 0.238633 0.238343 0.238068 0.237806 0.237529 0.237203 0.236845 
1828.00 0.236464 0.236043 0.235590 0.235114 0.234635 0.234187 0.233749 
1842.00 0.233304 0.232845 0.232377 0.231952 0.231591 0.231317 0.231153 
1856.00 0.231084 0.231091 0.231169 0.231325 0.231550 0.231885 0.232343 
1870.00 0.232908 0.233652 0.234571 0.235671 0.237019 0.238701 0.240742 
1884.00 0.243181 0.246170 0.249686 0.253760 0.258456 0.263629 0.269200 
1898.00 0.275109 0.281258 0.287561 0.293845 0.299998 0.305934 0.311547 
1912.00 0.316780 0.321655 0.326184 0.330283 0.333899 0.337072 0.339755 
1926.00 0.341932 0.343657 0.344961 0.345837 0.346314 0.346459 0.346271 
1940.00 0.345762 0.345012 0.344048 0.342900 0.341603 0.340219 0.338743 
1954.00 0.337204 0.335664 0.334122 0.332609 0.331124 0.329683 0.328300 
1968.00 0.326953 0.325635 0.324354 0.323116 0.321899 0.320663 0.319397 
1982.00 0.318129 0.316873 0.315654 0.314507 0.313441 0.312475 0.311616 
1996.00 0.310890 0.310306 0.309848 0.309559 0.309454 0.309543 0.309814 
2010.00 0.310264 0.310929 0.311820 0.312933 0.314259 0.315827 0.317632 
2024.00 0.319667 0.321925 0.324405 0.327130 0.330067 0.333180 0.336463 
2038.00 0.339850 0.343330 0.346902 0.350604 0.354358 0.358045 0.361676 
2052.00 0.365166 0.368465 0.371526 0.374267 0.376745 0.378978 0.380998 
2066.00 0.382803 0.384441 0.385962 0.387362 0.388647 0.389805 0.390901 
2080.00 0.391908 0.392812 0.393693 0.394546 0.395379 0.396184 0.396968 
2094.00 0.397719 0.398436 0.399135 0.399793 0.400415 0.401022 0.401601 
2108.00 0.402129 0.402608 0.403018 0.403354 0.403648 0.403895 0.404057 
2122.00 0.404118 0.404115 0.404103 0.404083 0.404005 0.403913 0.403805 
2136.00 0.403657 0.403529 0.403374 0.403139 0.402807 0.402389 0.401925 
2150.00 0.401429 0.400925 0.400486 0.400124 0.399778 0.399443 0.399067 
2164.00 0.398618 0.398079 0.397426 0.396701 0.395918 0.395098 0.394250 
2178.00 0.393387 0.392471 0.391478 0.390448 0.389377 0.388274 0.387155 
2192.00 0.386077 0.385093 0.384190 0.383319 0.382462 0.381627 0.380825 
2206.00 0.380067 0.379356 0.378733 0.378229 0.377809 0.377449 0.377219 
2220.00 0.377122 0.377163 0.377414 0.377946 0.378772 0.379924 0.381469 
2234.00 0.383398 0.385714 0.388307 0.391232 0.394534 0.398069 0.401704 
2248.00 0.405438 0.409179 0.412816 0.416389 0.419824 0.423190 0.426483 
2262.00 0.429656 0.432831 0.436010 0.439055 0.441841 0.444276 0.446384 
2276.00 0.448180 0.449612 0.450767 0.451721 0.452511 0.453206 0.453938 
2290.00 0.454769 0.455772 0.457019 0.458557 0.460363 0.462320 0.464316 
2304.00 0.466306 0.468154 0.469723 0.470922 0.471555 0.471605 0.471181 
2318.00 0.470614 0.470163 0.469999 0.470104 0.470339 0.470669 0.471062 
2332.00 0.471509 0.471972 0.472457 0.472958 0.473494 0.474012 0.474400 
2346.00 0.474602 0.474463 0.473917 0.472896 0.471563 0.470126 0.468671 
2360.00 0.467368 0.466241 0.465269 0.464483 0.463802 0.463191 0.462696 
2374.00 0.462347 0.462170 0.462118 0.462186 0.462312 0.462440 0.462583 
2388.00 0.462651 0.462676 0.462734 0.462779 0.462863 0.463032 0.463340 
2402.00 0.463826 0.464487 0.465361 0.466380 0.467503 0.468737 0.470115 
2416.00 0.471647 0.473262 0.474986 0.476834 0.478879 0.481046 0.483312 
2430.00 0.485754 0.488344 0.491052 0.493903 0.496868 0.499805 0.502776 
2444.00 0.505869 0.509014 0.512192 0.515317 0.518472 0.521694 0.524936 
2458.00 0.528149 0.531374 0.534532 0.537633 0.540550 0.543293 0.545992 
2472.00 0.548592 0.551086 0.553388 0.555518 0.557458 0.559150 0.560555 
2486.00 0.561739 0.562630 0.563197 0.563632 0.563906 0.563934 0.563736 
##END=
